# Loss function represented with  100 poles
# Dielectric constant:  -2.0000
        3.0346177912        0.0303461772        0.2424527618       10.9145985486
       12.7192967553        0.1271929647        0.0244171406        3.4428402558
       15.6955319809        0.1569553163        0.0197508813        2.6078120852
       17.9657202560        0.1796571985        0.0172412980        1.9295716377
       19.6937683130        0.1969376787        0.0157259087        1.5475924834
       21.1276395524        0.2112763908        0.0146589076        1.3186323644
       22.3632004286        0.2236319993        0.0138471141        1.1679100018
       23.4652958881        0.2346529536        0.0131956103        1.0486227946
       24.4703284191        0.2447032787        0.0126537753        0.9580635111
       25.3884890845        0.2538848852        0.0121958816        0.8801956227
       26.2394554683        0.2623945488        0.0118010180        0.8124871713
       27.0216303289        0.2702162972        0.0114588145        0.7602489691
       27.7569169980        0.2775691638        0.0111549229        0.7132410253
       28.4443420144        0.2844434138        0.0108849728        0.6679933865
       29.0904168971        0.2909041625        0.0106431063        0.6289402511
       29.7058915292        0.2970589087        0.0104226868        0.5994969834
       30.3263460501        0.3032634537        0.0102124944        0.5708808896
       30.8961786467        0.3089617796        0.0100249141        0.5453804109
       31.4047366948        0.3140473599        0.0098604287        0.5230195390
       31.8963776757        0.3189637696        0.0097068497        0.5015349178
       32.3842157143        0.3238421499        0.0095604207        0.4811318017
       32.8604598658        0.3286045913        0.0094221373        0.4657246964
       33.3190914171        0.3331909067        0.0092924035        0.4521353945
       33.7684722893        0.3376847153        0.0091690235        0.4391198604
       34.1974744846        0.3419747372        0.0090536741        0.4269140906
       34.6178000129        0.3461779924        0.0089436791        0.4153061642
       35.0338935798        0.3503389280        0.0088378977        0.4041939696
       35.4384308141        0.3543843002        0.0087373694        0.3936698855
       35.8176876096        0.3581768681        0.0086442043        0.3839285106
       36.1923221447        0.3619232134        0.0085544228        0.3749000948
       36.5636457320        0.3656364491        0.0084675950        0.3674917471
       36.9300345668        0.3693003374        0.0083838117        0.3616257443
       37.2907565882        0.3729075575        0.0083028970        0.3563332953
       37.6424020091        0.3764240117        0.0082251635        0.3513862956
       37.9991971018        0.3799919625        0.0081490468        0.3472545560
       38.3492973146        0.3834929646        0.0080753120        0.3433535300
       38.6908972716        0.3869089641        0.0080040079        0.3395810941
       39.0244020947        0.3902440122        0.0079350035        0.3359303353
       39.3506634027        0.3935066252        0.0078681539        0.3324459066
       39.6793263846        0.3967932550        0.0078027188        0.3299955526
       40.0081250836        0.4000812419        0.0077385499        0.3281544549
       40.3355069270        0.4033550603        0.0076757025        0.3267533810
       40.6615478621        0.4066154695        0.0076142093        0.3259406981
       40.9871457774        0.4098714486        0.0075530415        0.3256508505
       41.3021009239        0.4130210000        0.0074719122        0.3257285637
       41.6159272462        0.4161592632        0.0073804066        0.3257284927
       41.9351953066        0.4193519437        0.0072889009        0.3257284216
       42.2600765964        0.4226007565        0.0071973954        0.3257283505
       42.5907502672        0.4259074932        0.0071058899        0.3257282795
       42.9274035783        0.4292740262        0.0070143844        0.3257282084
       43.2850245984        0.4328502363        0.0077957087        0.3675443353
       43.6350216643        0.4363502069        0.0069993485        0.3364312043
       43.9818837941        0.4398188281        0.0071362827        0.3498882624
       44.3311710745        0.4433117008        0.0069793419        0.3498917557
       44.6835937058        0.4468359271        0.0069515235        0.3568688682
       45.0331114210        0.4503311041        0.0067959735        0.3579874110
       45.3851439657        0.4538514295        0.0066132535        0.3579873167
       45.7680718129        0.4576807079        0.0070437161        0.3926301189
       46.1086857338        0.4610868470        0.0065968939        0.3787971048
       46.4340805806        0.4643407954        0.0064050241        0.3787969931
       46.7770947992        0.4677709375        0.0062131545        0.3787968813
       47.1392295604        0.4713922851        0.0060212851        0.3787967695
       47.5221646278        0.4752216357        0.0058294158        0.3787966578
       47.9277861369        0.4792778507        0.0056375467        0.3787965460
       48.5148107134        0.4851480963        0.0091683077        0.6457489441
       49.1213153748        0.4912131428        0.0063055029        0.4683594229
       49.5893324284        0.4958933132        0.0061076229        0.4753076139
       50.0802468405        0.5008024572        0.0062444670        0.5111581589
       50.5800786229        0.5058007749        0.0058009158        0.5009586035
       51.1370044505        0.5113700331        0.0064369121        0.5873939734
       51.7005030941        0.5170050194        0.0058121817        0.5595358837
       52.2838491411        0.5228384797        0.0060269887        0.6135342075
       52.8692062408        0.5286920506        0.0055329266        0.5964054351
       53.5295086326        0.5352950744        0.0061206383        0.7031776012
       54.1522413726        0.5415224016        0.0053942489        0.6617688655
       54.8142113111        0.5481421009        0.0050431692        0.6617682695
       55.6716780743        0.5567167683        0.0064762458        0.9251803717
       56.5723319866        0.5657233072        0.0054934214        0.8622602976
       57.4410465025        0.5744104522        0.0053015758        0.9029493928
       58.3881333508        0.5838813205        0.0054037217        1.0041792636
       59.3153557552        0.5931535443        0.0049345447        1.0029205206
       60.3100606388        0.6031005929        0.0044926322        1.0029184463
       61.6485367218        0.6164853534        0.0059042705        1.4919992320
       63.0999915473        0.6309999014        0.0048998524        1.4246326092
       64.5527535431        0.6455275210        0.0047561257        1.5647421085
       65.9496968472        0.6594969537        0.0042122058        1.5651266174
       67.9864346458        0.6798643313        0.0051001385        2.2335864677
       70.3259062343        0.7032590466        0.0043764064        2.3226996064
       72.6211392132        0.7262113759        0.0040612452        2.5615335622
       75.6056676148        0.7560566592        0.0043008938        3.3680672052
       79.0561289832        0.7905612722        0.0036492131        3.6312254323
       83.5396618221        0.8353965995        0.0039696873        5.2341595059
       89.2641576100        0.8926415561        0.0034505514        6.3755517896
       96.3787948343        0.9637879268        0.0030441449        8.2666780190
      107.2048888388        1.0720488644        0.0030612668       13.8806774445
      124.4555910832        1.2445558830        0.0024306718       22.4048742775
      159.8926030052        1.5989259943        0.0019948687       57.9284802807
      256.6444244598        2.5664441872        0.0012203971      118.2930228779
      364.6901410087        3.6469013286        0.0008536075      125.8034865630
      624.8492657600        6.2484925179        0.0005113185      769.1924681000
